Date: 20.2.2020 , In use by: Mena
Daytime: 11:21:7, Temperature: 25°C
ID, strain4A, strain4B, loadcell x, temp [°C], runtime [ms]
BASELINE Time: 11:21:20
1, 1785342.00, 9729483.00, 8492827.00,25, 0
2, 1785328.00, 9729541.00, 8492742.00,25, 0
3, 1785057.00, 9729366.00, 8492808.00,25, 105
4, 1785050.00, 9729112.00, 8492816.00,25, 209
5, 1784890.00, 9728898.00, 8492853.00,25, 314
6, 1784774.00, 9728763.00, 8492862.00,25, 418
7, 1784656.00, 9728665.00, 8492765.00,25, 523
8, 1784550.00, 9728576.00, 8492673.00,25, 628
9, 1784421.00, 9728454.00, 8492706.00,25, 732
10, 1784153.00, 9728262.00, 8492828.00,25, 837
11, 1783929.00, 9728227.00, 8492756.00,25, 941
12, 1783769.00, 9728090.00, 8492896.00,25, 1046
13, 1783594.00, 9727752.00, 8492843.00,25, 1150
14, 1783344.00, 9727565.00, 8492881.00,25, 1255
15, 1783154.00, 9727392.00, 8492860.00,25, 1360
16, 1783035.00, 9727347.00, 8492883.00,25, 1464
17, 1782875.00, 9727231.00, 8492778.00,25, 1569
18, 1782746.00, 9727057.00, 8492819.00,25, 1673
19, 1782629.00, 9726924.00, 8492803.00,25, 1778
20, 1782500.00, 9726818.00, 8492905.00,25, 1882
21, 1782327.00, 9726556.00, 8492935.00,25, 1987
22, 1782188.00, 9726417.00, 8492864.00,25, 2092
23, 1782069.00, 9726354.00, 8492782.00,25, 2196
24, 1781902.00, 9726284.00, 8492818.00,25, 2301
25, 1781758.00, 9726136.00, 8492871.00,25, 2405
26, 1781611.00, 9726015.00, 8492833.00,25, 2510
27, 1781492.00, 9725891.00, 8492845.00,25, 2614
28, 1781383.00, 9725802.00, 8492902.00,25, 2719
29, 1781250.00, 9725626.00, 8492852.00,25, 2824
30, 1781109.00, 9725489.00, 8492887.00,25, 2928
31, 1781008.00, 9725328.00, 8492847.00,25, 3033
32, 1780868.00, 9725148.00, 8492794.00,25, 3137
33, 1780707.00, 9725095.00, 8492696.00,25, 3242
34, 1780534.00, 9724911.00, 8492738.00,25, 3346
35, 1780414.00, 9724867.00, 8492764.00,25, 3451
36, 1780335.00, 9724748.00, 8492815.00,25, 3556
37, 1780220.00, 9724483.00, 8492866.00,25, 3660
38, 1780109.00, 9724397.00, 8492847.00,25, 3765
39, 1779932.00, 9724339.00, 8492807.00,25, 3869
40, 1779744.00, 9724227.00, 8492780.00,25, 3974
41, 1779648.00, 9724143.00, 8492854.00,25, 4078
42, 1779504.00, 9724076.00, 8492884.00,25, 4183
43, 1779411.00, 9723951.00, 8492902.00,25, 4288
44, 1779324.00, 9723806.00, 8492947.00,25, 4392
45, 1779211.00, 9723608.00, 8492681.00,25, 4497
46, 1779080.00, 9723501.00, 8492788.00,25, 4601
47, 1778979.00, 9723440.00, 8492862.00,25, 4706
48, 1778828.00, 9723404.00, 8492846.00,25, 4810
49, 1778686.00, 9723214.00, 8492789.00,25, 4915
50, 1778595.00, 9723136.00, 8492932.00,25, 5020
51, 1778493.00, 9723083.00, 8492936.00,25, 5124
52, 1778391.00, 9722953.00, 8492884.00,25, 5229
53, 1778226.00, 9722815.00, 8492792.00,25, 5333
54, 1778083.00, 9722748.00, 8492775.00,25, 5438
55, 1777958.00, 9722623.00, 8492734.00,25, 5542
56, 1777902.00, 9722491.00, 8492771.00,25, 5647
57, 1777782.00, 9722403.00, 8492870.00,25, 5752
58, 1777696.00, 9722299.00, 8492900.00,25, 5856
59, 1777583.00, 9722214.00, 8492875.00,25, 5961
60, 1777555.00, 9722125.00, 8492886.00,25, 6065
61, 1777380.00, 9721988.00, 8492912.00,25, 6170
62, 1777234.00, 9721800.00, 8492907.00,25, 6274
63, 1777101.00, 9721732.00, 8492873.00,25, 6379
64, 1776998.00, 9721686.00, 8492896.00,25, 6483
65, 1776867.00, 9721652.00, 8492824.00,25, 6588
66, 1776755.00, 9721574.00, 8492825.00,25, 6693
67, 1776698.00, 9721449.00, 8492851.00,25, 6797
68, 1776611.00, 9721357.00, 8492845.00,25, 6902
69, 1776505.00, 9721292.00, 8492831.00,25, 7006
70, 1776342.00, 9721194.00, 8492919.00,25, 7111
71, 1776228.00, 9720999.00, 8492916.00,25, 7215
72, 1776158.00, 9720909.00, 8492856.00,25, 7320
73, 1776022.00, 9720846.00, 8492905.00,25, 7425
74, 1775908.00, 9720721.00, 8492896.00,25, 7529
75, 1775808.00, 9720714.00, 8492805.00,25, 7634
76, 1775700.00, 9720640.00, 8492816.00,25, 7738
77, 1775580.00, 9720372.00, 8492817.00,25, 7843
78, 1775512.00, 9720275.00, 8492839.00,25, 7947
79, 1775460.00, 9720214.00, 8492876.00,25, 8052
80, 1775339.00, 9720117.00, 8492835.00,25, 8157
81, 1775194.00, 9719996.00, 8492820.00,25, 8261
82, 1775108.00, 9719961.00, 8492764.00,25, 8366
83, 1775003.00, 9719927.00, 8492793.00,25, 8470
84, 1774893.00, 9719859.00, 8492862.00,25, 8575
85, 1774809.00, 9719709.00, 8492876.00,25, 8679
86, 1774765.00, 9719588.00, 8492886.00,25, 8784
87, 1774669.00, 9719546.00, 8492946.00,25, 8889
88, 1774530.00, 9719494.00, 8492921.00,25, 8993
89, 1774425.00, 9719436.00, 8492900.00,25, 9098
90, 1774241.00, 9719328.00, 8492796.00,25, 9202
91, 1774181.00, 9719221.00, 8492891.00,25, 9307
92, 1774111.00, 9719127.00, 8492962.00,25, 9411
93, 1774003.00, 9718976.00, 8492785.00,25, 9516
94, 1773939.00, 9718893.00, 8492875.00,25, 9621
95, 1773837.00, 9718818.00, 8492938.00,25, 9725
96, 1773747.00, 9718697.00, 8492884.00,25, 9830
97, 1773639.00, 9718660.00, 8492796.00,25, 9934
98, 1773528.00, 9718587.00, 8492775.00,25, 10039
99, 1773465.00, 9718475.00, 8492943.00,25, 10143
100, 1773383.00, 9718423.00, 8492825.00,25, 10248
101, 1773282.00, 9718285.00, 8492818.00,25, 10353
102, 1773184.00, 9718222.00, 8492847.00,25, 10457
103, 1773144.00, 9718122.00, 8492825.00,25, 10562
104, 1773075.00, 9718023.00, 8492690.00,25, 10666
105, 1772968.00, 9717923.00, 8492818.00,25, 10771
106, 1772893.00, 9717837.00, 8492925.00,25, 10875
107, 1772807.00, 9717800.00, 8492918.00,25, 10980
108, 1772635.00, 9717595.00, 8493012.00,25, 11085
109, 1772598.00, 9717552.00, 8492958.00,25, 11189
110, 1772549.00, 9717541.00, 8492877.00,25, 11294
111, 1772422.00, 9717476.00, 8492834.00,25, 11398
112, 1772281.00, 9717365.00, 8492831.00,25, 11503
113, 1772187.00, 9717271.00, 8492780.00,25, 11607
114, 1772099.00, 9717209.00, 8492798.00,25, 11712
115, 1772040.00, 9717187.00, 8492803.00,25, 11817
116, 1771903.00, 9717102.00, 8492957.00,25, 11921
117, 1771792.00, 9717030.00, 8492996.00,25, 12026
118, 1771764.00, 9716974.00, 8492858.00,25, 12130
119, 1771701.00, 9716906.00, 8492803.00,25, 12235
120, 1771653.00, 9716858.00, 8492795.00,25, 12340
121, 1771610.00, 9716847.00, 8492866.00,25, 12444
122, 1771542.00, 9716856.00, 8492886.00,25, 12549
123, 1771400.00, 9716779.00, 8492872.00,25, 12653
BASELINE Time: 11:21:33
RECORDING Time: 11:21:41
1, 1764232.00, 9711452.00, 8492804.00,25, 0
2, 1764212.00, 9711304.00, 8492936.00,25, 0
3, 1764104.00, 9711345.00, 8492841.00,25, 105
4, 1763929.00, 9711413.00, 8492859.00,25, 209
5, 1763763.00, 9711165.00, 8492879.00,25, 314
6, 1763745.00, 9711160.00, 8492826.00,25, 419
7, 1763704.00, 9711197.00, 8492870.00,25, 523
8, 1763602.00, 9711092.00, 8492976.00,25, 628
9, 1763412.00, 9711120.00, 8492800.00,25, 732
10, 1763331.00, 9711068.00, 8492779.00,25, 837
11, 1763243.00, 9710904.00, 8492744.00,25, 941
12, 1763095.00, 9710889.00, 8492810.00,25, 1046
13, 1762960.00, 9710825.00, 8492803.00,25, 1151
14, 1762827.00, 9710682.00, 8492837.00,25, 1255
15, 1762659.00, 9710577.00, 8492859.00,25, 1360
16, 1762588.00, 9710530.00, 8492882.00,25, 1464
17, 1762572.00, 9710409.00, 8492781.00,25, 1569
18, 1762482.00, 9710398.00, 8492839.00,25, 1674
19, 1762402.00, 9710345.00, 8492920.00,25, 1778
20, 1762274.00, 9710216.00, 8492849.00,25, 1883
21, 1762175.00, 9710170.00, 8492895.00,25, 1987
22, 1762135.00, 9710112.00, 8492929.00,25, 2092
23, 1762083.00, 9710043.00, 8492859.00,25, 2196
24, 1762064.00, 9709992.00, 8492855.00,25, 2301
25, 1761996.00, 9709891.00, 8492822.00,25, 2406
26, 1761877.00, 9709803.00, 8492809.00,25, 2510
27, 1761790.00, 9709744.00, 8492789.00,25, 2615
28, 1761774.00, 9709655.00, 8492759.00,25, 2719
29, 1761733.00, 9709593.00, 8492831.00,25, 2824
30, 1761633.00, 9709548.00, 8492913.00,25, 2929
31, 1761505.00, 9709518.00, 8492846.00,25, 3033
32, 1761459.00, 9709483.00, 8492856.00,25, 3138
33, 1761430.00, 9709374.00, 8492843.00,25, 3242
34, 1761389.00, 9709249.00, 8492858.00,25, 3347
35, 1761345.00, 9709168.00, 8492843.00,25, 3451
36, 1761267.00, 9709137.00, 8492942.00,25, 3556
37, 1761194.00, 9709161.00, 8492921.00,25, 3661
38, 1761128.00, 9709155.00, 8492905.00,25, 3765
39, 1761053.00, 9709077.00, 8492877.00,25, 3870
40, 1760979.00, 9709050.00, 8492946.00,25, 3974
41, 1760965.00, 9708889.00, 8492841.00,25, 4079
42, 1760943.00, 9708818.00, 8492817.00,25, 4183
43, 1760841.00, 9708762.00, 8492930.00,25, 4288
44, 1760790.00, 9708716.00, 8492895.00,25, 4393
45, 1760762.00, 9708674.00, 8492941.00,25, 4497
46, 1760688.00, 9708742.00, 8492894.00,25, 4602
47, 1760575.00, 9708881.00, 8492859.00,25, 4706
48, 1760483.00, 9708838.00, 8492938.00,25, 4811
49, 1760420.00, 9708700.00, 8492886.00,25, 4915
50, 1760389.00, 9708704.00, 8492722.00,25, 5020
51, 1760412.00, 9708612.00, 8492762.00,25, 5125
52, 1760327.00, 9708546.00, 8492912.00,25, 5229
53, 1760224.00, 9708534.00, 8492845.00,25, 5334
54, 1760165.00, 9708454.00, 8492825.00,25, 5438
55, 1760127.00, 9708416.00, 8492828.00,25, 5543
56, 1760141.00, 9708335.00, 8492892.00,25, 5647
57, 1760078.00, 9708296.00, 8492886.00,25, 5752
58, 1759969.00, 9708257.00, 8492879.00,25, 5857
59, 1759952.00, 9708190.00, 8492867.00,25, 5961
60, 1759836.00, 9708133.00, 8492951.00,25, 6066
61, 1759771.00, 9708078.00, 8492984.00,25, 6170
62, 1759777.00, 9708042.00, 8492915.00,25, 6275
63, 1759732.00, 9708003.00, 8492855.00,25, 6379
64, 1759584.00, 9707964.00, 8492817.00,25, 6484
65, 1759538.00, 9707820.00, 8492797.00,25, 6589
66, 1759601.00, 9707730.00, 8492842.00,25, 6693
67, 1759581.00, 9707712.00, 8492827.00,25, 6798
68, 1759479.00, 9707684.00, 8492880.00,25, 6902
69, 1759449.00, 9707653.00, 8492937.00,25, 7007
70, 1759392.00, 9707589.00, 8493002.00,25, 7112
71, 1759289.00, 9707522.00, 8492887.00,25, 7216
72, 1759214.00, 9707487.00, 8492875.00,25, 7321
73, 1759152.00, 9707369.00, 8493002.00,25, 7425
74, 1759165.00, 9707331.00, 8492987.00,25, 7530
75, 1759138.00, 9707287.00, 8492930.00,25, 7634
76, 1759084.00, 9707261.00, 8492972.00,25, 7739
77, 1758992.00, 9707183.00, 8492935.00,25, 7844
78, 1758910.00, 9707102.00, 8492934.00,25, 7948
79, 1758913.00, 9707070.00, 8492883.00,25, 8053
80, 1758892.00, 9707095.00, 8492899.00,25, 8157
81, 1758832.00, 9706968.00, 8492824.00,25, 8262
82, 1758755.00, 9706907.00, 8492733.00,25, 8367
83, 1758717.00, 9706860.00, 8492902.00,25, 8471
84, 1758651.00, 9706832.00, 8493027.00,25, 8576
85, 1758577.00, 9706807.00, 8492857.00,25, 8680
86, 1758512.00, 9706707.00, 8492596.00,25, 8785
87, 1758469.00, 9706591.00, 8492770.00,25, 8889
88, 1758419.00, 9706582.00, 8492638.00,25, 8994
89, 1758392.00, 9706396.00, 8492379.00,25, 9099
90, 1758361.00, 9706285.00, 8492025.00,25, 9203
91, 1758343.00, 9706287.00, 8491854.00,25, 9308
92, 1758254.00, 9706267.00, 8492286.00,25, 9412
93, 1758308.00, 9706177.00, 8491632.00,25, 9517
94, 1758382.00, 9706070.00, 8491286.00,25, 9622
95, 1758379.00, 9705986.00, 8491291.00,25, 9726
96, 1758312.00, 9705901.00, 8491828.00,25, 9831
97, 1758211.00, 9705759.00, 8492861.00,25, 9935
98, 1758452.00, 9705363.00, 8492109.00,25, 10040
99, 1758785.00, 9704991.00, 8490704.00,25, 10144
100, 1758849.00, 9704996.00, 8491054.00,25, 10249
101, 1759083.00, 9704690.00, 8491304.00,25, 10354
102, 1758855.00, 9704840.00, 8493568.00,25, 10458
103, 1758793.00, 9704832.00, 8493221.00,25, 10563
104, 1758607.00, 9704733.00, 8493396.00,25, 10667
105, 1758341.00, 9704947.00, 8494850.00,25, 10772
106, 1757846.00, 9705350.00, 8501625.00,25, 10877
107, 1757621.00, 9705414.00, 8501868.00,25, 10981
108, 1756918.00, 9705597.00, 8503990.00,25, 11086
109, 1748759.00, 9708934.00, 8510952.00,25, 11190
110, 1738937.00, 9719346.00, 8520511.00,25, 11295
111, 1737450.00, 9721263.00, 8520202.00,25, 11399
112, 1736588.00, 9721879.00, 8524328.00,25, 11504
113, 1735453.00, 9722979.00, 8529099.00,25, 11609
114, 1732383.00, 9725177.00, 8533098.00,25, 11713
115, 1727999.00, 9728248.00, 8536138.00,25, 11818
116, 1725109.00, 9730087.00, 8536907.00,25, 11922
117, 1724168.00, 9730640.00, 8536684.00,25, 12027
118, 1723701.00, 9730898.00, 8536658.00,25, 12132
119, 1723443.00, 9730981.00, 8536702.00,25, 12236
120, 1722952.00, 9730954.00, 8536652.00,25, 12341
121, 1722343.00, 9731229.00, 8536721.00,25, 12445
122, 1722010.00, 9731329.00, 8536742.00,25, 12550
123, 1721583.00, 9731374.00, 8536656.00,25, 12655
124, 1720710.00, 9731730.00, 8536658.00,25, 12759
125, 1719737.00, 9732187.00, 8536672.00,25, 12864
126, 1719070.00, 9732567.00, 8536699.00,25, 12968
127, 1718736.00, 9732728.00, 8536574.00,25, 13073
128, 1718391.00, 9732766.00, 8536612.00,25, 13177
129, 1718030.00, 9733159.00, 8536668.00,25, 13282
130, 1717812.00, 9733293.00, 8536664.00,25, 13387
131, 1717700.00, 9733335.00, 8536628.00,25, 13491
132, 1717587.00, 9733236.00, 8536663.00,25, 13596
133, 1717316.00, 9733427.00, 8536650.00,25, 13700
134, 1716996.00, 9733746.00, 8536710.00,25, 13805
135, 1716810.00, 9733743.00, 8536719.00,25, 13910
136, 1716722.00, 9733637.00, 8536628.00,25, 14014
137, 1716652.00, 9733594.00, 8536613.00,25, 14119
138, 1716601.00, 9733506.00, 8536700.00,25, 14223
139, 1716432.00, 9733490.00, 8536795.00,25, 14328
140, 1715941.00, 9733598.00, 8536733.00,25, 14432
141, 1715527.00, 9733683.00, 8536678.00,25, 14537
142, 1715086.00, 9733764.00, 8536701.00,25, 14642
143, 1714459.00, 9733908.00, 8536755.00,25, 14746
144, 1713982.00, 9734223.00, 8536732.00,25, 14851
145, 1713808.00, 9734211.00, 8536724.00,25, 14955
146, 1713768.00, 9734163.00, 8536725.00,25, 15060
147, 1713682.00, 9734119.00, 8536767.00,25, 15165
148, 1713616.00, 9734132.00, 8536755.00,25, 15269
149, 1713468.00, 9734194.00, 8536702.00,25, 15374
150, 1713283.00, 9734319.00, 8536756.00,25, 15478
151, 1713086.00, 9734495.00, 8536796.00,25, 15583
152, 1712870.00, 9734789.00, 8536709.00,25, 15688
153, 1712772.00, 9734812.00, 8536791.00,25, 15792
154, 1712687.00, 9734716.00, 8536799.00,25, 15897
155, 1712602.00, 9734571.00, 8536827.00,25, 16001
156, 1712550.00, 9734468.00, 8536716.00,25, 16106
157, 1712483.00, 9734342.00, 8536656.00,25, 16211
158, 1712168.00, 9734366.00, 8536668.00,25, 16315
159, 1711630.00, 9734568.00, 8536715.00,25, 16420
160, 1711211.00, 9734724.00, 8536608.00,25, 16524
161, 1710852.00, 9734795.00, 8536661.00,25, 16629
162, 1710541.00, 9734811.00, 8536705.00,25, 16734
163, 1710398.00, 9734800.00, 8536731.00,25, 16838
164, 1710345.00, 9734739.00, 8536716.00,25, 16943
165, 1710315.00, 9734710.00, 8536663.00,25, 17047
166, 1710236.00, 9734712.00, 8536690.00,25, 17152
167, 1710143.00, 9734848.00, 8536734.00,25, 17257
168, 1709986.00, 9735194.00, 8536802.00,25, 17361
169, 1709810.00, 9735212.00, 8536807.00,25, 17466
170, 1709720.00, 9735224.00, 8536675.00,25, 17570
171, 1709641.00, 9735262.00, 8536651.00,25, 17675
172, 1709641.00, 9735236.00, 8536602.00,25, 17779
173, 1709539.00, 9735078.00, 8536677.00,25, 17884
174, 1709480.00, 9734940.00, 8536618.00,25, 17989
175, 1709461.00, 9734847.00, 8536579.00,25, 18093
176, 1709199.00, 9734819.00, 8536759.00,25, 18198
177, 1708699.00, 9735009.00, 8536709.00,25, 18302
178, 1708309.00, 9735116.00, 8536684.00,25, 18407
179, 1708050.00, 9735165.00, 8536678.00,25, 18512
180, 1707816.00, 9735156.00, 8536731.00,25, 18616
181, 1707702.00, 9735162.00, 8536701.00,25, 18721
182, 1707630.00, 9735164.00, 8536614.00,25, 18825
183, 1707573.00, 9735118.00, 8536685.00,25, 18930
184, 1707509.00, 9735148.00, 8536685.00,25, 19035
185, 1707468.00, 9735179.00, 8536673.00,25, 19139
186, 1707364.00, 9735353.00, 8536680.00,25, 19244
187, 1707197.00, 9735475.00, 8536671.00,25, 19348
188, 1707093.00, 9735390.00, 8536645.00,25, 19453
189, 1707020.00, 9735372.00, 8536747.00,25, 19557
190, 1707016.00, 9735358.00, 8536813.00,25, 19662
191, 1707022.00, 9735242.00, 8536739.00,25, 19767
192, 1707003.00, 9735085.00, 8536695.00,25, 19871
193, 1706944.00, 9734965.00, 8536572.00,25, 19976
194, 1706736.00, 9734917.00, 8536595.00,25, 20080
195, 1706376.00, 9735054.00, 8536648.00,25, 20185
196, 1706046.00, 9735145.00, 8536686.00,25, 20290
197, 1705795.00, 9735223.00, 8536709.00,25, 20394
198, 1705684.00, 9735215.00, 8536724.00,25, 20499
199, 1705571.00, 9735182.00, 8536717.00,25, 20603
200, 1705497.00, 9735175.00, 8536746.00,25, 20708
201, 1705393.00, 9735167.00, 8536704.00,25, 20813
202, 1705405.00, 9735215.00, 8536708.00,25, 20917
203, 1705411.00, 9735244.00, 8536824.00,25, 21022
204, 1705289.00, 9735293.00, 8536821.00,25, 21126
205, 1705105.00, 9735423.00, 8536983.00,25, 21231
206, 1705045.00, 9735400.00, 8537149.00,25, 21336
207, 1704971.00, 9735256.00, 8537295.00,25, 21440
208, 1704725.00, 9735506.00, 8537718.00,25, 21545
209, 1704580.00, 9735506.00, 8538212.00,25, 21649
210, 1704604.00, 9735211.00, 8537783.00,25, 21754
211, 1704613.00, 9735076.00, 8536743.00,25, 21859
212, 1704601.00, 9735020.00, 8535997.00,25, 21963
213, 1704735.00, 9735042.00, 8535365.00,25, 22068
214, 1704464.00, 9734517.00, 8535167.00,25, 22172
215, 1702388.00, 9735497.00, 8539134.00,25, 22277
216, 1701786.00, 9736584.00, 8537323.00,25, 22382
217, 1700297.00, 9737886.00, 8535716.00,25, 22486
218, 1696123.00, 9740142.00, 8542717.00,25, 22591
219, 1692259.00, 9743261.00, 8546052.00,25, 22695
220, 1692192.00, 9742635.00, 8545538.00,25, 22800
221, 1691269.00, 9743564.00, 8549877.00,25, 22905
222, 1688709.00, 9744196.00, 8552624.00,25, 23009
223, 1681087.00, 9747820.00, 8558604.00,25, 23114
224, 1672190.00, 9760783.00, 8567020.00,25, 23218
225, 1661190.00, 9767049.00, 8576664.00,25, 23323
226, 1647900.00, 9772094.00, 8580584.00,25, 23428
227, 1643370.00, 9771971.00, 8581531.00,25, 23532
228, 1643785.00, 9770610.00, 8579972.00,25, 23637
229, 1642618.00, 9769950.00, 8578177.00,25, 23741
230, 1637775.00, 9773016.00, 8580349.00,25, 23846
231, 1636749.00, 9775370.00, 8581416.00,25, 23951
232, 1636887.00, 9774360.00, 8580698.00,25, 24055
233, 1636614.00, 9774030.00, 8580700.00,25, 24160
234, 1636092.00, 9774074.00, 8580777.00,25, 24264
235, 1635715.00, 9774030.00, 8580762.00,25, 24369
236, 1635107.00, 9774110.00, 8580752.00,25, 24474
237, 1634705.00, 9774238.00, 8580680.00,25, 24578
238, 1634516.00, 9774189.00, 8580617.00,25, 24683
239, 1634344.00, 9774113.00, 8580613.00,25, 24788
240, 1634224.00, 9774092.00, 8580609.00,25, 24892
241, 1634105.00, 9774165.00, 8580707.00,25, 24997
242, 1633973.00, 9774214.00, 8580672.00,25, 25101
243, 1633816.00, 9774325.00, 8580695.00,25, 25206
244, 1633447.00, 9774647.00, 8580834.00,25, 25311
245, 1633056.00, 9774967.00, 8580791.00,25, 25415
246, 1632849.00, 9775046.00, 8580640.00,25, 25520
247, 1632644.00, 9775096.00, 8580559.00,25, 25624
248, 1632435.00, 9775001.00, 8580588.00,25, 25729
249, 1632397.00, 9774726.00, 8580709.00,25, 25834
250, 1632293.00, 9774492.00, 8580724.00,25, 25938
251, 1632203.00, 9774348.00, 8580692.00,25, 26043
252, 1632067.00, 9774181.00, 8580657.00,25, 26147
253, 1631708.00, 9774098.00, 8580644.00,25, 26252
254, 1631216.00, 9774144.00, 8580678.00,25, 26357
255, 1630679.00, 9774311.00, 8580720.00,25, 26461
256, 1630428.00, 9774395.00, 8580786.00,25, 26566
257, 1630393.00, 9774341.00, 8580684.00,25, 26670
258, 1630458.00, 9774282.00, 8580544.00,25, 26775
259, 1630384.00, 9774337.00, 8580535.00,25, 26880
260, 1630250.00, 9774417.00, 8580720.00,25, 26984
261, 1630031.00, 9774580.00, 8580735.00,25, 27089
262, 1629692.00, 9774797.00, 8580762.00,25, 27193
263, 1629443.00, 9775110.00, 8580788.00,25, 27298
264, 1629167.00, 9775519.00, 8580790.00,25, 27403
265, 1628962.00, 9775582.00, 8580684.00,25, 27507
266, 1628848.00, 9775519.00, 8580649.00,25, 27612
267, 1628765.00, 9775388.00, 8580745.00,25, 27716
268, 1628727.00, 9775178.00, 8580695.00,25, 27821
269, 1628716.00, 9774954.00, 8580619.00,25, 27926
270, 1628645.00, 9774799.00, 8580750.00,25, 28030
271, 1628416.00, 9774615.00, 8580820.00,25, 28135
272, 1628049.00, 9774577.00, 8580667.00,25, 28239
273, 1627675.00, 9774711.00, 8580653.00,25, 28344
274, 1627396.00, 9774789.00, 8580619.00,25, 28449
275, 1627312.00, 9774722.00, 8580637.00,25, 28553
276, 1627274.00, 9774690.00, 8580680.00,25, 28658
277, 1627307.00, 9774746.00, 8580695.00,25, 28762
278, 1627260.00, 9774833.00, 8580648.00,25, 28867
279, 1627044.00, 9774959.00, 8580659.00,25, 28972
280, 1626855.00, 9775381.00, 8580673.00,25, 29076
281, 1626638.00, 9775662.00, 8580744.00,25, 29181
282, 1626402.00, 9775786.00, 8580611.00,25, 29285
283, 1626242.00, 9775761.00, 8580602.00,25, 29390
284, 1626120.00, 9775722.00, 8580603.00,25, 29495
285, 1626023.00, 9775606.00, 8580696.00,25, 29599
286, 1625982.00, 9775482.00, 8580773.00,25, 29704
287, 1625951.00, 9775295.00, 8580754.00,25, 29809
288, 1625912.00, 9774811.00, 8580795.00,25, 29913
289, 1625744.00, 9774740.00, 8580833.00,25, 30018
290, 1625489.00, 9774753.00, 8580745.00,25, 30122
291, 1625179.00, 9774804.00, 8580751.00,25, 30227
292, 1624981.00, 9774802.00, 8580686.00,25, 30332
293, 1624937.00, 9774836.00, 8580580.00,25, 30436
294, 1624964.00, 9774829.00, 8580685.00,25, 30541
295, 1624937.00, 9774830.00, 8580612.00,25, 30645
296, 1624828.00, 9775003.00, 8580708.00,25, 30750
297, 1624661.00, 9775134.00, 8580744.00,25, 30855
298, 1624487.00, 9775382.00, 8580652.00,25, 30959
299, 1624297.00, 9775607.00, 8580699.00,25, 31064
300, 1624043.00, 9775788.00, 8580727.00,25, 31168
301, 1623816.00, 9775879.00, 8580701.00,25, 31273
302, 1623731.00, 9775866.00, 8580629.00,25, 31378
303, 1623654.00, 9775827.00, 8580664.00,25, 31482
304, 1623594.00, 9775537.00, 8580665.00,25, 31587
305, 1623596.00, 9775301.00, 8580677.00,25, 31691
306, 1623623.00, 9775131.00, 8580776.00,25, 31796
307, 1623500.00, 9775062.00, 8580739.00,25, 31901
308, 1623235.00, 9774975.00, 8580628.00,25, 32005
309, 1623055.00, 9774987.00, 8580688.00,25, 32110
310, 1622949.00, 9774951.00, 8580729.00,25, 32214
311, 1622889.00, 9774954.00, 8580714.00,25, 32319
312, 1622878.00, 9774989.00, 8580703.00,25, 32424
313, 1622870.00, 9775001.00, 8580717.00,25, 32528
314, 1622813.00, 9775061.00, 8580669.00,25, 32633
315, 1622720.00, 9775137.00, 8580781.00,25, 32737
316, 1622628.00, 9775317.00, 8580690.00,25, 32842
317, 1622451.00, 9775567.00, 8580725.00,25, 32947
318, 1622205.00, 9775825.00, 8580744.00,25, 33051
319, 1622008.00, 9775964.00, 8580711.00,25, 33156
320, 1621830.00, 9775941.00, 8580702.00,25, 33260
321, 1621711.00, 9775891.00, 8580726.00,25, 33365
322, 1621652.00, 9775764.00, 8580709.00,25, 33470
323, 1621641.00, 9775620.00, 8580678.00,25, 33574
324, 1621638.00, 9775366.00, 8580707.00,25, 33679
325, 1621498.00, 9775138.00, 8580688.00,25, 33783
326, 1621281.00, 9775114.00, 8580694.00,25, 33888
327, 1621029.00, 9775138.00, 8580651.00,25, 33992
328, 1620994.00, 9775023.00, 8580716.00,25, 34097
329, 1621043.00, 9774999.00, 8580654.00,25, 34202
330, 1621003.00, 9775086.00, 8580666.00,25, 34306
331, 1621045.00, 9775104.00, 8580742.00,25, 34411
332, 1620997.00, 9775042.00, 8581268.00,25, 34515
333, 1620749.00, 9775192.00, 8581418.00,25, 34620
334, 1620588.00, 9775407.00, 8581787.00,25, 34725
335, 1620435.00, 9775576.00, 8581985.00,25, 34829
336, 1620108.00, 9775909.00, 8582643.00,25, 34934
337, 1620160.00, 9775595.00, 8581750.00,25, 35038
338, 1619963.00, 9775586.00, 8582755.00,25, 35143
339, 1619956.00, 9775495.00, 8582318.00,25, 35248
340, 1620121.00, 9775200.00, 8581201.00,25, 35352
341, 1619758.00, 9775026.00, 8580354.00,25, 35457
342, 1617854.00, 9775963.00, 8583724.00,25, 35561
343, 1616929.00, 9777094.00, 8586023.00,25, 35666
344, 1615907.00, 9778163.00, 8589996.00,25, 35771
345, 1612291.00, 9781328.00, 8592994.00,25, 35875
346, 1609597.00, 9783375.00, 8591893.00,25, 35980
347, 1603050.00, 9785545.00, 8594782.00,25, 36084
348, 1590979.00, 9791777.00, 8600720.00,25, 36189
349, 1587341.00, 9794064.00, 8602776.00,25, 36294
350, 1586441.00, 9792946.00, 8600452.00,25, 36398
351, 1583681.00, 9793547.00, 8602938.00,25, 36503
352, 1581888.00, 9796261.00, 8602287.00,25, 36607
353, 1581682.00, 9795868.00, 8602065.00,25, 36712
354, 1581387.00, 9795736.00, 8602067.00,25, 36817
355, 1581315.00, 9795710.00, 8602134.00,25, 36921
356, 1581438.00, 9795406.00, 8601758.00,25, 37026
357, 1581296.00, 9795198.00, 8602158.00,25, 37130
358, 1581203.00, 9795176.00, 8602166.00,25, 37235
359, 1581372.00, 9795210.00, 8602138.00,25, 37340
360, 1581544.00, 9794871.00, 8602113.00,25, 37444
361, 1581414.00, 9794928.00, 8602115.00,25, 37549
362, 1581317.00, 9795107.00, 8601986.00,25, 37653
363, 1581319.00, 9795051.00, 8602031.00,25, 37758
364, 1581151.00, 9794998.00, 8602157.00,25, 37862
365, 1580900.00, 9795242.00, 8602067.00,25, 37967
366, 1580750.00, 9795262.00, 8602144.00,25, 38072
367, 1580663.00, 9795155.00, 8602081.00,25, 38176
368, 1580567.00, 9795211.00, 8602116.00,25, 38281
369, 1580586.00, 9794946.00, 8602131.00,25, 38385
370, 1580626.00, 9794848.00, 8602126.00,25, 38490
371, 1580696.00, 9794862.00, 8602120.00,25, 38595
372, 1580687.00, 9794680.00, 8602126.00,25, 38699
373, 1580454.00, 9794578.00, 8602167.00,25, 38804
374, 1580426.00, 9794647.00, 8602170.00,25, 38908
375, 1580491.00, 9794540.00, 8602057.00,25, 39013
376, 1580456.00, 9794350.00, 8602060.00,25, 39118
377, 1580519.00, 9794320.00, 8602096.00,25, 39222
378, 1580648.00, 9794227.00, 8602157.00,25, 39327
379, 1580706.00, 9794086.00, 8602047.00,25, 39431
380, 1580615.00, 9794138.00, 8602085.00,25, 39536
381, 1580526.00, 9794266.00, 8602099.00,25, 39641
382, 1580434.00, 9794284.00, 8602133.00,25, 39745
383, 1580289.00, 9794409.00, 8602144.00,25, 39850
384, 1580119.00, 9794591.00, 8602091.00,25, 39954
385, 1579904.00, 9794544.00, 8602050.00,25, 40059
386, 1579693.00, 9794638.00, 8602025.00,25, 40163
387, 1579586.00, 9794570.00, 8602113.00,25, 40268
388, 1579552.00, 9794512.00, 8602092.00,25, 40373
389, 1579551.00, 9794434.00, 8602158.00,25, 40477
390, 1579643.00, 9794284.00, 8602173.00,25, 40582
391, 1579533.00, 9794109.00, 8602094.00,25, 40686
392, 1579326.00, 9794152.00, 8602113.00,25, 40791
393, 1579430.00, 9794059.00, 8602042.00,25, 40896
394, 1579493.00, 9793905.00, 8602142.00,25, 41000
395, 1579500.00, 9793886.00, 8602209.00,25, 41105
396, 1579521.00, 9793833.00, 8602090.00,25, 41209
397, 1579542.00, 9793643.00, 8602081.00,25, 41314
398, 1579539.00, 9793514.00, 8602069.00,25, 41419
399, 1579478.00, 9793608.00, 8602065.00,25, 41523
400, 1579334.00, 9793680.00, 8602033.00,25, 41628
401, 1579034.00, 9793831.00, 8602038.00,25, 41732
402, 1578828.00, 9793944.00, 8602050.00,25, 41837
403, 1578632.00, 9793958.00, 8602048.00,25, 41942
404, 1578364.00, 9793972.00, 8602121.00,25, 42046
405, 1578193.00, 9793995.00, 8602117.00,25, 42151
406, 1578132.00, 9793928.00, 8602062.00,25, 42255
407, 1578102.00, 9793805.00, 8602063.00,25, 42360
408, 1578117.00, 9793652.00, 8602112.00,25, 42465
409, 1578154.00, 9793496.00, 8602021.00,25, 42569
410, 1578110.00, 9793402.00, 8602048.00,25, 42674
411, 1578064.00, 9793468.00, 8602108.00,25, 42778
412, 1578080.00, 9793381.00, 8602115.00,25, 42883
413, 1578168.00, 9793260.00, 8602238.00,25, 42988
414, 1578254.00, 9793176.00, 8602150.00,25, 43092
415, 1578315.00, 9793112.00, 8602084.00,25, 43197
416, 1578321.00, 9793108.00, 8602074.00,25, 43301
417, 1578328.00, 9792980.00, 8602070.00,25, 43406
418, 1578166.00, 9793173.00, 8602064.00,25, 43511
419, 1577946.00, 9793144.00, 8602112.00,25, 43615
420, 1577819.00, 9793265.00, 8602097.00,25, 43720
421, 1577655.00, 9793292.00, 8602086.00,25, 43824
422, 1577480.00, 9793236.00, 8602209.00,25, 43929
423, 1577256.00, 9793378.00, 8602192.00,25, 44034
424, 1577156.00, 9793297.00, 8602110.00,25, 44138
425, 1577098.00, 9793209.00, 8602046.00,25, 44243
426, 1577072.00, 9793183.00, 8602007.00,25, 44347
427, 1577093.00, 9793028.00, 8602084.00,25, 44452
428, 1577191.00, 9792897.00, 8602075.00,25, 44557
429, 1577297.00, 9792886.00, 8602084.00,25, 44661
430, 1577345.00, 9792801.00, 8602129.00,25, 44766
431, 1577390.00, 9792755.00, 8602202.00,25, 44870
432, 1577429.00, 9792589.00, 8602128.00,25, 44975
433, 1577492.00, 9792517.00, 8602089.00,25, 45080
434, 1577625.00, 9792449.00, 8602161.00,25, 45184
435, 1577597.00, 9792420.00, 8602196.00,25, 45289
436, 1577505.00, 9792445.00, 8602164.00,25, 45393
437, 1577381.00, 9792517.00, 8602114.00,25, 45498
438, 1577195.00, 9792617.00, 8602097.00,25, 45603
439, 1577001.00, 9792708.00, 8602176.00,25, 45707
440, 1576817.00, 9792648.00, 8602191.00,25, 45812
441, 1576645.00, 9792712.00, 8602160.00,25, 45916
442, 1576474.00, 9792773.00, 8602207.00,25, 46021
443, 1576379.00, 9792674.00, 8602137.00,25, 46126
444, 1576345.00, 9792585.00, 8602113.00,25, 46230
445, 1576371.00, 9792547.00, 8602142.00,25, 46335
446, 1576394.00, 9792401.00, 8602039.00,25, 46439
447, 1576416.00, 9792397.00, 8602045.00,25, 46544
448, 1576464.00, 9792394.00, 8602122.00,25, 46649
449, 1576621.00, 9792214.00, 8602181.00,25, 46753
450, 1576721.00, 9792167.00, 8602236.00,25, 46858
451, 1576833.00, 9792026.00, 8602207.00,25, 46962
452, 1576945.00, 9792022.00, 8602136.00,25, 47067
453, 1576900.00, 9792012.00, 8602076.00,25, 47171
454, 1576811.00, 9791984.00, 8602042.00,25, 47276
455, 1576686.00, 9791985.00, 8601986.00,25, 47381
456, 1576582.00, 9792050.00, 8602092.00,25, 47485
457, 1576374.00, 9792041.00, 8602124.00,25, 47590
458, 1576172.00, 9792102.00, 8602170.00,25, 47694
459, 1575984.00, 9792175.00, 8602087.00,25, 47799
460, 1575769.00, 9792209.00, 8602134.00,25, 47904
461, 1575659.00, 9792211.00, 8602072.00,25, 48008
462, 1575588.00, 9792156.00, 8602151.00,25, 48113
463, 1575595.00, 9792092.00, 8602050.00,25, 48217
464, 1575591.00, 9791981.00, 8602001.00,25, 48322
465, 1575618.00, 9791975.00, 8602177.00,25, 48427
466, 1575724.00, 9791890.00, 8602186.00,25, 48531
467, 1575862.00, 9791803.00, 8602221.00,25, 48636
468, 1575983.00, 9791792.00, 8602200.00,25, 48740
469, 1576070.00, 9791733.00, 8602246.00,25, 48845
470, 1576147.00, 9791648.00, 8602409.00,25, 48950
471, 1576185.00, 9791494.00, 8602345.00,25, 49054
472, 1576216.00, 9791467.00, 8602101.00,25, 49159
473, 1576125.00, 9791461.00, 8602152.00,25, 49263
474, 1575892.00, 9791575.00, 8602281.00,25, 49368
475, 1575309.00, 9791860.00, 8602578.00,25, 49473
476, 1574213.00, 9792522.00, 8605756.00,25, 49577
477, 1573277.00, 9792996.00, 8606615.00,25, 49682
478, 1573192.00, 9793229.00, 8605900.00,25, 49786
479, 1573159.00, 9792971.00, 8605297.00,25, 49891
480, 1573018.00, 9793115.00, 8605300.00,25, 49996
481, 1572856.00, 9793196.00, 8605016.00,25, 50100
482, 1572546.00, 9793467.00, 8605615.00,25, 50205
483, 1571987.00, 9793759.00, 8606718.00,25, 50309
484, 1571008.00, 9794457.00, 8606739.00,25, 50414
485, 1570123.00, 9794866.00, 8607499.00,25, 50519
486, 1569643.00, 9795805.00, 8608202.00,25, 50623
487, 1570122.00, 9795043.00, 8604998.00,25, 50728
488, 1568595.00, 9796566.00, 8603928.00,25, 50832
489, 1566519.00, 9798049.00, 8608562.00,25, 50937
490, 1563537.00, 9799592.00, 8613737.00,25, 51042
491, 1553370.00, 9802991.00, 8616632.00,25, 51146
492, 1545043.00, 9804833.00, 8618027.00,25, 51251
493, 1538303.00, 9807140.00, 8624551.00,25, 51355
494, 1534187.00, 9808545.00, 8627058.00,25, 51460
495, 1529385.00, 9811737.00, 8629617.00,25, 51565
496, 1524094.00, 9813962.00, 8633547.00,25, 51669
497, 1512997.00, 9819741.00, 8638758.00,25, 51774
498, 1500784.00, 9826037.00, 8642314.00,25, 51878
499, 1498102.00, 9824783.00, 8642017.00,25, 51983
500, 1495663.00, 9825588.00, 8645386.00,25, 52088
501, 1495722.00, 9826177.00, 8645111.00,25, 52192
502, 1496375.00, 9824940.00, 8644959.00,25, 52297
503, 1496542.00, 9823652.00, 8644950.00,25, 52401
504, 1496631.00, 9823476.00, 8644892.00,25, 52506
505, 1496808.00, 9822997.00, 8644835.00,25, 52611
506, 1497008.00, 9822670.00, 8644910.00,25, 52715
507, 1497095.00, 9822584.00, 8644944.00,25, 52820
508, 1497164.00, 9822272.00, 8644964.00,25, 52924
509, 1497294.00, 9821915.00, 8644920.00,25, 53029
510, 1497370.00, 9821780.00, 8644954.00,25, 53134
511, 1497324.00, 9821408.00, 8644823.00,25, 53238
512, 1497067.00, 9821400.00, 8644812.00,25, 53343
513, 1496878.00, 9821342.00, 8644844.00,25, 53447
514, 1496538.00, 9821247.00, 8644759.00,25, 53552
515, 1496121.00, 9821274.00, 8644734.00,25, 53657
516, 1495935.00, 9821293.00, 8644896.00,25, 53761
517, 1495598.00, 9821254.00, 8645016.00,25, 53866
518, 1495285.00, 9821344.00, 8645033.00,25, 53970
519, 1495074.00, 9821392.00, 8645010.00,25, 54075
520, 1494913.00, 9821333.00, 8644952.00,25, 54180
521, 1494748.00, 9821365.00, 8644945.00,25, 54284
522, 1494708.00, 9821334.00, 8644901.00,25, 54389
523, 1494775.00, 9821196.00, 8644828.00,25, 54493
524, 1494829.00, 9821117.00, 8644890.00,25, 54598
525, 1494957.00, 9821059.00, 8644783.00,25, 54703
526, 1495171.00, 9820845.00, 8644830.00,25, 54807
527, 1495240.00, 9820607.00, 8644928.00,25, 54912
528, 1495310.00, 9820408.00, 8644855.00,25, 55016
529, 1495373.00, 9820239.00, 8644831.00,25, 55121
530, 1495341.00, 9820142.00, 8644893.00,25, 55226
531, 1495209.00, 9820056.00, 8644857.00,25, 55330
532, 1494791.00, 9820195.00, 8644871.00,25, 55435
533, 1494464.00, 9820269.00, 8644952.00,25, 55539
534, 1494144.00, 9820307.00, 8645013.00,25, 55644
535, 1493784.00, 9820437.00, 8644993.00,25, 55749
536, 1493530.00, 9820521.00, 8644929.00,25, 55853
537, 1493352.00, 9820444.00, 8644799.00,25, 55958
538, 1493134.00, 9820557.00, 8644828.00,25, 56063
539, 1492954.00, 9820657.00, 8644920.00,25, 56167
540, 1492873.00, 9820634.00, 8645050.00,25, 56272
541, 1492912.00, 9820622.00, 8644921.00,25, 56376
542, 1492970.00, 9820662.00, 8644870.00,25, 56481
543, 1493044.00, 9820401.00, 8645036.00,25, 56586
544, 1493108.00, 9820360.00, 8645087.00,25, 56690
545, 1493232.00, 9820305.00, 8645049.00,25, 56795
546, 1493367.00, 9820059.00, 8644864.00,25, 56899
547, 1493460.00, 9819878.00, 8644849.00,25, 57004
548, 1493537.00, 9819753.00, 8644874.00,25, 57109
549, 1493525.00, 9819638.00, 8644847.00,25, 57213
550, 1493298.00, 9819581.00, 8644895.00,25, 57318
551, 1492950.00, 9819756.00, 8644814.00,25, 57422
552, 1492503.00, 9819822.00, 8644872.00,25, 57527
553, 1492246.00, 9819968.00, 8644879.00,25, 57632
554, 1492048.00, 9820037.00, 8644867.00,25, 57736
555, 1491773.00, 9820076.00, 8644833.00,25, 57841
556, 1491534.00, 9820154.00, 8644787.00,25, 57945
557, 1491336.00, 9820183.00, 8644825.00,25, 58050
558, 1491304.00, 9820193.00, 8644930.00,25, 58155
559, 1491278.00, 9820331.00, 8644942.00,25, 58259
560, 1491306.00, 9820263.00, 8644859.00,25, 58364
561, 1491350.00, 9820156.00, 8644892.00,25, 58468
562, 1491440.00, 9820013.00, 8644951.00,25, 58573
563, 1491562.00, 9819863.00, 8644930.00,25, 58678
564, 1491662.00, 9819752.00, 8644948.00,25, 58782
565, 1491875.00, 9819633.00, 8644900.00,25, 58887
566, 1492004.00, 9819450.00, 8644804.00,25, 58991
567, 1492024.00, 9819165.00, 8644879.00,25, 59096
568, 1491886.00, 9819118.00, 8644885.00,25, 59201
569, 1491477.00, 9819233.00, 8644862.00,25, 59305
570, 1491129.00, 9819398.00, 8644865.00,25, 59410
571, 1490879.00, 9819466.00, 8644744.00,25, 59514
572, 1490606.00, 9819513.00, 8644759.00,25, 59619
573, 1490359.00, 9819586.00, 8644886.00,25, 59723
574, 1490144.00, 9819654.00, 8644985.00,25, 59828
575, 1489959.00, 9819809.00, 8644912.00,25, 59933
576, 1489910.00, 9819851.00, 8644878.00,25, 60037
577, 1489862.00, 9819894.00, 8644834.00,25, 60142
578, 1489802.00, 9819857.00, 8644871.00,25, 60246
579, 1489820.00, 9819798.00, 8644821.00,25, 60351
580, 1489918.00, 9819690.00, 8644887.00,25, 60456
581, 1490031.00, 9819600.00, 8644930.00,25, 60560
582, 1490154.00, 9819531.00, 8645065.00,25, 60665
583, 1490281.00, 9819144.00, 8645012.00,25, 60769
584, 1490377.00, 9818992.00, 8644877.00,25, 60874
585, 1490461.00, 9818897.00, 8644877.00,25, 60979
586, 1490445.00, 9818763.00, 8644944.00,25, 61083
587, 1490221.00, 9818840.00, 8644929.00,25, 61188
588, 1489874.00, 9819003.00, 8644817.00,25, 61292
589, 1489557.00, 9819055.00, 8644851.00,25, 61397
590, 1489331.00, 9819098.00, 8644847.00,25, 61502
591, 1489133.00, 9819261.00, 8644906.00,25, 61606
592, 1488889.00, 9819316.00, 8644933.00,25, 61711
593, 1488690.00, 9819443.00, 8644815.00,25, 61815
594, 1488564.00, 9819514.00, 8644791.00,25, 61920
595, 1488421.00, 9819596.00, 8644904.00,25, 62025
596, 1488301.00, 9819689.00, 8644897.00,25, 62129
597, 1488312.00, 9819652.00, 8644900.00,25, 62234
598, 1488342.00, 9819530.00, 8644888.00,25, 62338
599, 1488421.00, 9819450.00, 8644828.00,25, 62443
600, 1488555.00, 9819284.00, 8644906.00,25, 62548
601, 1488648.00, 9819089.00, 8644957.00,25, 62652
602, 1488788.00, 9818918.00, 8644943.00,25, 62757
603, 1488930.00, 9818719.00, 8644960.00,25, 62861
604, 1488988.00, 9818676.00, 8644935.00,25, 62966
605, 1488907.00, 9818561.00, 8644820.00,25, 63071
606, 1488634.00, 9818542.00, 8644757.00,25, 63175
607, 1488339.00, 9818852.00, 8644793.00,25, 63280
608, 1488074.00, 9818930.00, 8644863.00,25, 63384
609, 1487874.00, 9818966.00, 8645015.00,25, 63489
610, 1487660.00, 9819044.00, 8644938.00,25, 63594
611, 1487445.00, 9819182.00, 8644861.00,25, 63698
612, 1487288.00, 9819284.00, 8644899.00,25, 63803
613, 1487144.00, 9819314.00, 8644903.00,25, 63907
614, 1487023.00, 9819429.00, 8644885.00,25, 64012
615, 1487017.00, 9819452.00, 8644796.00,25, 64117
616, 1487047.00, 9819405.00, 8644926.00,25, 64221
617, 1487155.00, 9819212.00, 8644990.00,25, 64326
618, 1487282.00, 9819068.00, 8644924.00,25, 64430
619, 1487438.00, 9818971.00, 8644891.00,25, 64535
620, 1487565.00, 9818797.00, 8644947.00,25, 64639
621, 1487730.00, 9818599.00, 8644981.00,25, 64744
622, 1487815.00, 9818473.00, 8644993.00,25, 64849
623, 1487807.00, 9818333.00, 8644994.00,25, 64953
624, 1487708.00, 9818425.00, 8644724.00,25, 65058
625, 1487695.00, 9818339.00, 8643946.00,25, 65162
626, 1487647.00, 9818105.00, 8643204.00,25, 65267
627, 1487334.00, 9818255.00, 8643777.00,25, 65372
628, 1487027.00, 9818468.00, 8644612.00,25, 65476
629, 1486999.00, 9818733.00, 8644919.00,25, 65581
630, 1487087.00, 9818577.00, 8643347.00,25, 65685
631, 1487221.00, 9818273.00, 8642184.00,25, 65790
632, 1487212.00, 9818082.00, 8641999.00,25, 65894
633, 1487074.00, 9818190.00, 8642829.00,25, 65999
634, 1487558.00, 9817739.00, 8640971.00,25, 66104
635, 1488350.00, 9817010.00, 8638361.00,25, 66208
636, 1489195.00, 9816035.00, 8634906.00,25, 66313
637, 1489691.00, 9815412.00, 8630609.00,25, 66417
638, 1491118.00, 9814928.00, 8623701.00,25, 66522
639, 1492584.00, 9812154.00, 8617178.00,25, 66627
640, 1493234.00, 9811642.00, 8614642.00,25, 66731
641, 1494125.00, 9810857.00, 8610607.00,25, 66836
642, 1494717.00, 9810608.00, 8607785.00,25, 66940
643, 1494810.00, 9810778.00, 8606425.00,25, 67045
644, 1494927.00, 9811036.00, 8605411.00,25, 67150
645, 1495177.00, 9811170.00, 8604156.00,25, 67254
646, 1494887.00, 9810850.00, 8606113.00,25, 67359
647, 1494729.00, 9811168.00, 8607309.00,25, 67463
648, 1495142.00, 9810489.00, 8606528.00,25, 67568
649, 1495548.00, 9809841.00, 8605319.00,25, 67673
650, 1495954.00, 9809291.00, 8603659.00,25, 67777
651, 1496300.00, 9808696.00, 8602205.00,25, 67882
652, 1496385.00, 9808279.00, 8602215.00,25, 67986
653, 1496423.00, 9808052.00, 8602135.00,25, 68091
654, 1496437.00, 9808026.00, 8602069.00,25, 68195
655, 1496499.00, 9807793.00, 8602041.00,25, 68300
656, 1496395.00, 9807958.00, 8602159.00,25, 68405
657, 1496250.00, 9808202.00, 8602200.00,25, 68509
658, 1496212.00, 9808352.00, 8602208.00,25, 68614
659, 1496094.00, 9808593.00, 8602107.00,25, 68718
660, 1495950.00, 9808878.00, 8602199.00,25, 68823
661, 1495835.00, 9809042.00, 8602232.00,25, 68928
662, 1495724.00, 9809209.00, 8602170.00,25, 69032
663, 1495666.00, 9809418.00, 8602216.00,25, 69137
664, 1495717.00, 9809235.00, 8602233.00,25, 69241
665, 1495752.00, 9809106.00, 8602166.00,25, 69346
666, 1495876.00, 9808915.00, 8602200.00,25, 69450
667, 1496081.00, 9808548.00, 8602149.00,25, 69555
668, 1496192.00, 9808178.00, 8602176.00,25, 69660
669, 1496338.00, 9807935.00, 8602261.00,25, 69764
670, 1496502.00, 9807621.00, 8602249.00,25, 69869
671, 1496653.00, 9807216.00, 8602203.00,25, 69973
672, 1496707.00, 9807133.00, 8602138.00,25, 70078
673, 1496717.00, 9807051.00, 8602135.00,25, 70183
674, 1496671.00, 9807089.00, 8602125.00,25, 70287
675, 1496604.00, 9807295.00, 8602121.00,25, 70392
676, 1496459.00, 9807456.00, 8602272.00,25, 70496
677, 1496269.00, 9807714.00, 8602360.00,25, 70601
678, 1496075.00, 9808000.00, 8602311.00,25, 70706
679, 1495949.00, 9808364.00, 8602196.00,25, 70810
680, 1495843.00, 9808414.00, 8602232.00,25, 70915
681, 1495833.00, 9808428.00, 8602131.00,25, 71019
682, 1495809.00, 9808355.00, 8602185.00,25, 71124
683, 1495839.00, 9808244.00, 8602243.00,25, 71228
684, 1495920.00, 9808107.00, 8602122.00,25, 71333
685, 1496031.00, 9807804.00, 8602126.00,25, 71438
686, 1496216.00, 9807462.00, 8602219.00,25, 71542
687, 1496439.00, 9806872.00, 8602180.00,25, 71647
688, 1496541.00, 9806612.00, 8602127.00,25, 71751
689, 1496666.00, 9806407.00, 8602146.00,25, 71856
690, 1496741.00, 9806304.00, 8602244.00,25, 71961
691, 1496715.00, 9806267.00, 8602221.00,25, 72065
692, 1496656.00, 9806292.00, 8602271.00,25, 72170
693, 1496581.00, 9806398.00, 8602200.00,25, 72274
694, 1496451.00, 9806593.00, 8602242.00,25, 72379
695, 1496250.00, 9807106.00, 8602222.00,25, 72483
696, 1496097.00, 9807365.00, 8602157.00,25, 72588
697, 1496010.00, 9807591.00, 8602123.00,25, 72693
698, 1495897.00, 9807692.00, 8602152.00,25, 72797
699, 1495785.00, 9807738.00, 8602109.00,25, 72902
700, 1495752.00, 9807713.00, 8602137.00,25, 73006
701, 1495808.00, 9807630.00, 8602111.00,25, 73111
702, 1495890.00, 9807480.00, 8602216.00,25, 73216
703, 1495929.00, 9806899.00, 8602290.00,25, 73320
704, 1496077.00, 9806558.00, 8602344.00,25, 73425
705, 1496241.00, 9806298.00, 8602320.00,25, 73529
706, 1496348.00, 9806057.00, 8602129.00,25, 73634
707, 1496492.00, 9805834.00, 8602148.00,25, 73738
708, 1496585.00, 9805750.00, 8602119.00,25, 73843
709, 1496567.00, 9805624.00, 8602215.00,25, 73948
710, 1496462.00, 9805665.00, 8602347.00,25, 74052
711, 1496327.00, 9806097.00, 8602681.00,25, 74157
712, 1496197.00, 9806302.00, 8602665.00,25, 74261
713, 1495998.00, 9806603.00, 8602797.00,25, 74366
714, 1495593.00, 9806998.00, 8605142.00,25, 74471
715, 1495257.00, 9807224.00, 8605483.00,25, 74575
716, 1495032.00, 9807369.00, 8605329.00,25, 74680
717, 1495222.00, 9807409.00, 8604334.00,25, 74784
718, 1495677.00, 9806909.00, 8601999.00,25, 74889
719, 1495930.00, 9805897.00, 8600890.00,25, 74993
720, 1495744.00, 9806092.00, 8601151.00,25, 75098
721, 1495840.00, 9806115.00, 8600739.00,25, 75203
722, 1496997.00, 9804975.00, 8595795.00,25, 75307
723, 1498460.00, 9803574.00, 8590318.00,25, 75412
724, 1499620.00, 9802452.00, 8585831.00,25, 75516
725, 1499995.00, 9801751.00, 8584016.00,25, 75621
726, 1499895.00, 9801875.00, 8584540.00,25, 75726
727, 1499844.00, 9801880.00, 8585022.00,25, 75830
728, 1499925.00, 9801746.00, 8585240.00,25, 75935
729, 1500021.00, 9801598.00, 8585285.00,25, 76039
730, 1499982.00, 9801570.00, 8585866.00,25, 76144
731, 1499904.00, 9801423.00, 8586457.00,25, 76248
732, 1499953.00, 9801384.00, 8586326.00,25, 76353
733, 1500131.00, 9801403.00, 8585487.00,25, 76458
734, 1500498.00, 9800658.00, 8584561.00,25, 76562
735, 1500900.00, 9800457.00, 8581322.00,25, 76667
736, 1500780.00, 9800798.00, 8581455.00,25, 76771
737, 1500853.00, 9800785.00, 8581457.00,25, 76876
738, 1500947.00, 9800662.00, 8581131.00,25, 76981
739, 1501023.00, 9800810.00, 8581010.00,25, 77085
740, 1501232.00, 9800852.00, 8580832.00,25, 77190
741, 1501409.00, 9800588.00, 8580767.00,25, 77294
742, 1501443.00, 9800422.00, 8580650.00,25, 77399
743, 1501532.00, 9800298.00, 8580724.00,25, 77503
744, 1501682.00, 9800065.00, 8580788.00,25, 77608
745, 1501755.00, 9799902.00, 8580832.00,25, 77713
746, 1501825.00, 9799773.00, 8580887.00,25, 77817
747, 1501859.00, 9799553.00, 8580876.00,25, 77922
748, 1501857.00, 9799345.00, 8580784.00,25, 78026
749, 1501848.00, 9799226.00, 8580756.00,25, 78131
750, 1501870.00, 9799125.00, 8580858.00,25, 78236
751, 1501847.00, 9799079.00, 8580832.00,25, 78340
752, 1501726.00, 9799185.00, 8580708.00,25, 78445
753, 1501681.00, 9799287.00, 8580732.00,25, 78549
754, 1501620.00, 9799363.00, 8580879.00,25, 78654
755, 1501466.00, 9799558.00, 8580878.00,25, 78759
756, 1501369.00, 9799675.00, 8580851.00,25, 78863
757, 1501421.00, 9799724.00, 8580809.00,25, 78968
758, 1501448.00, 9799915.00, 8580814.00,25, 79072
759, 1501435.00, 9799896.00, 8580824.00,25, 79177
760, 1501471.00, 9799815.00, 8580711.00,25, 79282
761, 1501573.00, 9799726.00, 8580703.00,25, 79386
762, 1501619.00, 9799611.00, 8580788.00,25, 79491
763, 1501782.00, 9799397.00, 8580752.00,25, 79595
764, 1501833.00, 9799069.00, 8580765.00,25, 79700
765, 1501839.00, 9798944.00, 8580818.00,25, 79804
766, 1501896.00, 9798641.00, 8580821.00,25, 79909
767, 1501921.00, 9798561.00, 8580768.00,25, 80014
768, 1501829.00, 9798618.00, 8580764.00,25, 80118
769, 1501754.00, 9798620.00, 8580840.00,25, 80223
770, 1501711.00, 9798672.00, 8580741.00,25, 80327
771, 1501566.00, 9798816.00, 8580787.00,25, 80432
772, 1501475.00, 9798934.00, 8580741.00,25, 80537
773, 1501410.00, 9799018.00, 8580733.00,25, 80641
774, 1501354.00, 9799350.00, 8580833.00,25, 80746
775, 1501276.00, 9799363.00, 8580788.00,25, 80850
776, 1501214.00, 9799449.00, 8580744.00,25, 80955
777, 1501249.00, 9799419.00, 8580829.00,25, 81060
778, 1501357.00, 9799294.00, 8580729.00,25, 81164
779, 1501438.00, 9799265.00, 8580689.00,25, 81269
780, 1501594.00, 9799128.00, 8580845.00,25, 81373
781, 1501648.00, 9798999.00, 8580872.00,25, 81478
782, 1501737.00, 9798449.00, 8580728.00,25, 81583
783, 1501808.00, 9798340.00, 8580828.00,25, 81687
784, 1501867.00, 9798114.00, 8580830.00,25, 81792
785, 1501878.00, 9797959.00, 8580762.00,25, 81896
786, 1501828.00, 9797906.00, 8580727.00,25, 82001
787, 1501779.00, 9797920.00, 8580728.00,25, 82105
788, 1501672.00, 9797982.00, 8580640.00,25, 82210
789, 1501641.00, 9798052.00, 8580711.00,25, 82315
790, 1501541.00, 9798349.00, 8580840.00,25, 82419
791, 1501393.00, 9798470.00, 8580729.00,25, 82524
792, 1501348.00, 9798623.00, 8580684.00,25, 82628
793, 1501294.00, 9798697.00, 8580669.00,25, 82733
794, 1501227.00, 9798689.00, 8580711.00,25, 82838
795, 1501233.00, 9798730.00, 8580785.00,25, 82942
796, 1501311.00, 9798679.00, 8580777.00,25, 83047
797, 1501399.00, 9798558.00, 8580830.00,25, 83151
798, 1501518.00, 9798232.00, 8580840.00,25, 83256
799, 1501624.00, 9797947.00, 8580830.00,25, 83361
800, 1501727.00, 9797733.00, 8580786.00,25, 83465
801, 1501801.00, 9797566.00, 8580726.00,25, 83570
802, 1501850.00, 9797531.00, 8580748.00,25, 83674
803, 1501891.00, 9797384.00, 8580741.00,25, 83779
804, 1501790.00, 9797338.00, 8580727.00,25, 83884
805, 1501727.00, 9797306.00, 8580718.00,25, 83988
806, 1501667.00, 9797455.00, 8580690.00,25, 84093
807, 1501536.00, 9797559.00, 8580763.00,25, 84197
808, 1501392.00, 9797810.00, 8581168.00,25, 84302
809, 1501296.00, 9797951.00, 8581225.00,25, 84407
810, 1501325.00, 9798007.00, 8580998.00,25, 84511
811, 1501401.00, 9797952.00, 8580311.00,25, 84616
812, 1501314.00, 9797991.00, 8580116.00,25, 84720
813, 1501399.00, 9797852.00, 8579578.00,25, 84825
814, 1503006.00, 9795690.00, 8575530.00,25, 84930
815, 1507268.00, 9791861.00, 8567406.00,25, 85034
816, 1511616.00, 9788746.00, 8561056.00,25, 85139
817, 1516283.00, 9785685.00, 8553658.00,25, 85243
818, 1522092.00, 9782040.00, 8547182.00,25, 85348
819, 1529354.00, 9776746.00, 8537534.00,25, 85453
820, 1535600.00, 9773761.00, 8535221.00,25, 85557
821, 1544791.00, 9767723.00, 8534602.00,25, 85662
822, 1545733.00, 9765102.00, 8541780.00,25, 85766
823, 1545551.00, 9765327.00, 8543897.00,25, 85871
824, 1546199.00, 9764803.00, 8541169.00,25, 85976
825, 1546790.00, 9764182.00, 8538906.00,25, 86080
826, 1547199.00, 9763810.00, 8537140.00,25, 86185
827, 1547438.00, 9763414.00, 8536891.00,25, 86289
828, 1547515.00, 9763240.00, 8536953.00,25, 86394
829, 1547515.00, 9763259.00, 8536881.00,25, 86499
830, 1547628.00, 9763063.00, 8536889.00,25, 86603
831, 1547831.00, 9762918.00, 8536833.00,25, 86708
832, 1547876.00, 9763035.00, 8536740.00,25, 86812
833, 1547872.00, 9763084.00, 8536754.00,25, 86917
834, 1547920.00, 9763141.00, 8536731.00,25, 87022
835, 1547879.00, 9763200.00, 8536730.00,25, 87126
836, 1547786.00, 9763366.00, 8536787.00,25, 87231
837, 1547745.00, 9763563.00, 8536814.00,25, 87335
838, 1547859.00, 9763526.00, 8536859.00,25, 87440
839, 1548018.00, 9763594.00, 8536847.00,25, 87545
840, 1548177.00, 9763625.00, 8536819.00,25, 87649
841, 1548311.00, 9763554.00, 8536765.00,25, 87754
842, 1548345.00, 9763503.00, 8536841.00,25, 87858
843, 1548293.00, 9763420.00, 8536807.00,25, 87963
844, 1548357.00, 9763372.00, 8536750.00,25, 88068
845, 1548452.00, 9763236.00, 8536659.00,25, 88172
846, 1548540.00, 9762816.00, 8536742.00,25, 88277
847, 1548577.00, 9762834.00, 8536822.00,25, 88381
848, 1548601.00, 9762810.00, 8536787.00,25, 88486
849, 1548680.00, 9762626.00, 8536828.00,25, 88591
850, 1548701.00, 9762520.00, 8536710.00,25, 88695
851, 1548682.00, 9762792.00, 8536731.00,25, 88800
852, 1548659.00, 9762878.00, 8536802.00,25, 88904
853, 1548654.00, 9762824.00, 8536888.00,25, 89009
854, 1548606.00, 9763173.00, 8536783.00,25, 89114
855, 1548644.00, 9763168.00, 8536806.00,25, 89218
856, 1548858.00, 9763000.00, 8536863.00,25, 89323
857, 1548883.00, 9763017.00, 8536875.00,25, 89427
858, 1548927.00, 9762979.00, 8536821.00,25, 89532
859, 1548908.00, 9762973.00, 8536759.00,25, 89637
860, 1548951.00, 9763088.00, 8536759.00,25, 89741
861, 1549010.00, 9762922.00, 8536813.00,25, 89846
862, 1549057.00, 9762618.00, 8536804.00,25, 89950
863, 1549115.00, 9762490.00, 8536823.00,25, 90055
864, 1549186.00, 9762273.00, 8536788.00,25, 90160
865, 1549288.00, 9762142.00, 8536824.00,25, 90264
866, 1549332.00, 9762075.00, 8536821.00,25, 90369
867, 1549220.00, 9762022.00, 8536703.00,25, 90473
868, 1549210.00, 9762041.00, 8536829.00,25, 90578
869, 1549190.00, 9762003.00, 8536872.00,25, 90683
870, 1549151.00, 9762152.00, 8536884.00,25, 90787
871, 1549187.00, 9762217.00, 8536861.00,25, 90892
872, 1549170.00, 9762294.00, 8536800.00,25, 90996
873, 1549154.00, 9762439.00, 8536827.00,25, 91101
874, 1549245.00, 9762500.00, 8536807.00,25, 91206
875, 1549389.00, 9762321.00, 8536793.00,25, 91310
876, 1549523.00, 9762207.00, 8536821.00,25, 91415
877, 1549516.00, 9762139.00, 8536867.00,25, 91519
878, 1549510.00, 9762117.00, 8536884.00,25, 91624
879, 1549501.00, 9762041.00, 8536785.00,25, 91729
880, 1549496.00, 9761893.00, 8536691.00,25, 91833
881, 1549516.00, 9761756.00, 8536751.00,25, 91938
882, 1549574.00, 9761618.00, 8536869.00,25, 92042
883, 1549680.00, 9761456.00, 8536809.00,25, 92147
884, 1549720.00, 9761362.00, 8536855.00,25, 92251
885, 1549700.00, 9761332.00, 8536873.00,25, 92356
886, 1549674.00, 9761362.00, 8536872.00,25, 92461
887, 1549623.00, 9761477.00, 8536856.00,25, 92565
888, 1549653.00, 9761612.00, 8536916.00,25, 92670
889, 1549624.00, 9761693.00, 8536879.00,25, 92774
890, 1549579.00, 9761717.00, 8536778.00,25, 92879
891, 1549553.00, 9761764.00, 8536841.00,25, 92984
892, 1549569.00, 9761845.00, 8536896.00,25, 93088
893, 1549713.00, 9761818.00, 8536851.00,25, 93193
894, 1549799.00, 9761626.00, 8536848.00,25, 93297
895, 1549802.00, 9761554.00, 8536891.00,25, 93402
896, 1549757.00, 9761579.00, 8536861.00,25, 93507
897, 1549802.00, 9761371.00, 8536748.00,25, 93611
898, 1549832.00, 9761245.00, 8536882.00,25, 93716
899, 1549938.00, 9761132.00, 8536873.00,25, 93820
900, 1549961.00, 9761031.00, 8536728.00,25, 93925
901, 1549989.00, 9760895.00, 8536753.00,25, 94030
902, 1550076.00, 9760756.00, 8536834.00,25, 94134
903, 1550085.00, 9760812.00, 8536822.00,25, 94239
904, 1550014.00, 9760836.00, 8536805.00,25, 94343
905, 1549975.00, 9760923.00, 8536899.00,25, 94448
906, 1549945.00, 9760991.00, 8536850.00,25, 94553
907, 1549911.00, 9761061.00, 8536713.00,25, 94657
908, 1549839.00, 9761122.00, 8536646.00,25, 94762
909, 1549753.00, 9761185.00, 8536774.00,25, 94866
910, 1549755.00, 9761258.00, 8536814.00,25, 94971
911, 1549788.00, 9761249.00, 8536867.00,25, 95076
912, 1549781.00, 9761246.00, 8536928.00,25, 95180
913, 1549847.00, 9761161.00, 8536880.00,25, 95285
914, 1549873.00, 9761053.00, 8536894.00,25, 95389
915, 1549887.00, 9760933.00, 8536929.00,25, 95494
916, 1549947.00, 9760812.00, 8536958.00,25, 95599
917, 1549937.00, 9760687.00, 8536917.00,25, 95703
918, 1549991.00, 9760473.00, 8536873.00,25, 95808
919, 1550030.00, 9760434.00, 8536909.00,25, 95912
920, 1550015.00, 9760361.00, 8536881.00,25, 96017
921, 1549975.00, 9760397.00, 8536820.00,25, 96122
922, 1549953.00, 9760452.00, 8536757.00,25, 96226
923, 1549924.00, 9760522.00, 8536858.00,25, 96331
924, 1549878.00, 9760625.00, 8536969.00,25, 96435
925, 1549838.00, 9760709.00, 8536971.00,25, 96540
926, 1549764.00, 9760830.00, 8536860.00,25, 96645
927, 1549766.00, 9760846.00, 8536746.00,25, 96749
928, 1549746.00, 9760852.00, 8536837.00,25, 96854
929, 1549721.00, 9760939.00, 8537103.00,25, 96959
930, 1549736.00, 9760957.00, 8537386.00,25, 97063
931, 1549762.00, 9760834.00, 8537025.00,25, 97168
932, 1549985.00, 9760615.00, 8535886.00,25, 97272
933, 1550251.00, 9760197.00, 8535266.00,25, 97377
934, 1550354.00, 9759752.00, 8535524.00,25, 97482
935, 1550712.00, 9759717.00, 8535431.00,25, 97586
936, 1551562.00, 9758761.00, 8533849.00,25, 97691
937, 1552166.00, 9758183.00, 8531776.00,25, 97795
938, 1552811.00, 9757923.00, 8530879.00,25, 97900
939, 1555505.00, 9756886.00, 8527866.00,25, 98005
940, 1570398.00, 9751973.00, 8521476.00,25, 98109
941, 1590876.00, 9737192.00, 8516650.00,25, 98214
942, 1605466.00, 9715058.00, 8514282.00,25, 98318
943, 1616814.00, 9707909.00, 8510371.00,25, 98423
944, 1631412.00, 9699094.00, 8501280.00,25, 98528
945, 1652016.00, 9685694.00, 8499919.00,25, 98632
946, 1656978.00, 9683936.00, 8502749.00,25, 98737
947, 1658419.00, 9685399.00, 8504323.00,25, 98841
948, 1668915.00, 9682014.00, 8497940.00,25, 98946
949, 1673321.00, 9675294.00, 8500692.00,25, 99051
950, 1672976.00, 9677352.00, 8504315.00,25, 99155
951, 1673395.00, 9677174.00, 8501477.00,25, 99260
952, 1672383.00, 9678507.00, 8506800.00,25, 99364
953, 1671943.00, 9679267.00, 8505801.00,25, 99469
954, 1672578.00, 9678733.00, 8502871.00,25, 99574
955, 1673018.00, 9678618.00, 8501225.00,25, 99678
956, 1673751.00, 9678427.00, 8498936.00,25, 99783
957, 1674556.00, 9677682.00, 8496541.00,25, 99887
958, 1675053.00, 9677237.00, 8494704.00,25, 99992
959, 1675549.00, 9677063.00, 8493746.00,25, 100097
960, 1676456.00, 9676456.00, 8493087.00,25, 100201
961, 1677109.00, 9676222.00, 8493182.00,25, 100306
962, 1677429.00, 9676261.00, 8493121.00,25, 100411
963, 1677948.00, 9676253.00, 8492934.00,25, 100515
964, 1678354.00, 9676219.00, 8492914.00,25, 100620
965, 1678579.00, 9676163.00, 8493048.00,25, 100724
966, 1678728.00, 9676028.00, 8493124.00,25, 100829
967, 1678890.00, 9676040.00, 8493102.00,25, 100934
968, 1679556.00, 9675823.00, 8493050.00,25, 101038
969, 1680823.00, 9675026.00, 8493035.00,25, 101143
970, 1682131.00, 9673840.00, 8493046.00,25, 101247
971, 1682644.00, 9673232.00, 8492960.00,25, 101352
972, 1682870.00, 9673146.00, 8493005.00,25, 101457
973, 1683038.00, 9673237.00, 8492986.00,25, 101561
974, 1683176.00, 9673127.00, 8492970.00,25, 101666
975, 1683410.00, 9672840.00, 8493035.00,25, 101770
976, 1683752.00, 9672693.00, 8493137.00,25, 101875
977, 1683916.00, 9672784.00, 8493096.00,25, 101980
978, 1684176.00, 9672894.00, 8492958.00,25, 102084
979, 1684380.00, 9672873.00, 8492931.00,25, 102189
980, 1684422.00, 9672871.00, 8493051.00,25, 102293
981, 1684406.00, 9672853.00, 8493127.00,25, 102398
982, 1684502.00, 9672959.00, 8493080.00,25, 102503
983, 1684932.00, 9672812.00, 8492937.00,25, 102607
984, 1685132.00, 9672644.00, 8493008.00,25, 102712
985, 1685226.00, 9672410.00, 8493036.00,25, 102816
986, 1685321.00, 9672145.00, 8492915.00,25, 102921
987, 1685622.00, 9672052.00, 8493021.00,25, 103026
988, 1686026.00, 9671932.00, 8492909.00,25, 103130
989, 1686419.00, 9671614.00, 8492922.00,25, 103235
990, 1686647.00, 9671127.00, 8493003.00,25, 103339
991, 1687004.00, 9670860.00, 8492901.00,25, 103444
992, 1687358.00, 9670725.00, 8492965.00,25, 103549
993, 1687596.00, 9670700.00, 8493108.00,25, 103653
994, 1687693.00, 9670820.00, 8493015.00,25, 103758
995, 1687653.00, 9670834.00, 8493075.00,25, 103862
996, 1687611.00, 9670901.00, 8493121.00,25, 103967
997, 1687685.00, 9670961.00, 8493034.00,25, 104072
998, 1687965.00, 9670932.00, 8493071.00,25, 104176
999, 1688052.00, 9670916.00, 8493050.00,25, 104281
1000, 1688050.00, 9670909.00, 8493012.00,25, 104385
1001, 1688033.00, 9670825.00, 8493034.00,25, 104490
1002, 1688039.00, 9670749.00, 8493069.00,25, 104595
1003, 1688042.00, 9670841.00, 8493108.00,25, 104699
1004, 1688101.00, 9670833.00, 8493104.00,25, 104804
1005, 1688254.00, 9670634.00, 8492970.00,25, 104909
1006, 1689129.00, 9669485.00, 8492932.00,25, 105013
1007, 1690643.00, 9668470.00, 8493161.00,25, 105118
1008, 1691074.00, 9668334.00, 8493204.00,25, 105222
1009, 1690946.00, 9668463.00, 8493031.00,25, 105327
1010, 1690912.00, 9668520.00, 8493034.00,25, 105432
1011, 1690876.00, 9668592.00, 8493146.00,25, 105536
1012, 1690836.00, 9668680.00, 8493071.00,25, 105641
1013, 1690864.00, 9668770.00, 8493125.00,25, 105745
1014, 1691005.00, 9668688.00, 8493029.00,25, 105850
1015, 1691139.00, 9668703.00, 8493088.00,25, 105955
1016, 1691203.00, 9668732.00, 8493096.00,25, 106059
1017, 1691141.00, 9668740.00, 8493095.00,25, 106164
1018, 1691032.00, 9668774.00, 8493012.00,25, 106268
1019, 1690958.00, 9668793.00, 8493002.00,25, 106373
1020, 1690944.00, 9668822.00, 8492981.00,25, 106478
1021, 1691017.00, 9668695.00, 8492983.00,25, 106582
1022, 1691089.00, 9668398.00, 8492907.00,25, 106687
1023, 1691165.00, 9668380.00, 8492867.00,25, 106792
1024, 1691231.00, 9668432.00, 8493071.00,25, 106896
1025, 1691258.00, 9668392.00, 8493143.00,25, 107001
1026, 1691258.00, 9668403.00, 8493026.00,25, 107105
1027, 1691278.00, 9668454.00, 8492969.00,25, 107210
1028, 1691319.00, 9668409.00, 8493124.00,25, 107315
1029, 1691507.00, 9668419.00, 8493053.00,25, 107419
1030, 1691764.00, 9668351.00, 8492922.00,25, 107524
1031, 1691817.00, 9668347.00, 8493024.00,25, 107629
1032, 1691707.00, 9668365.00, 8493012.00,25, 107733
1033, 1691702.00, 9668370.00, 8493016.00,25, 107838
1034, 1691708.00, 9668393.00, 8493049.00,25, 107942
1035, 1691678.00, 9668381.00, 8493130.00,25, 108047
1036, 1691756.00, 9668360.00, 8493086.00,25, 108152
1037, 1691810.00, 9668114.00, 8493001.00,25, 108256
1038, 1691843.00, 9668075.00, 8493004.00,25, 108361
1039, 1691871.00, 9668141.00, 8493039.00,25, 108465
1040, 1691893.00, 9668078.00, 8493071.00,25, 108570
1041, 1691907.00, 9667994.00, 8493056.00,25, 108675
1042, 1691970.00, 9667955.00, 8493044.00,25, 108779
1043, 1692043.00, 9667964.00, 8493012.00,25, 108884
1044, 1692234.00, 9667934.00, 8493028.00,25, 108989
1045, 1692395.00, 9667820.00, 8493039.00,25, 109093
1046, 1692419.00, 9667837.00, 8493021.00,25, 109198
1047, 1692399.00, 9667921.00, 8493059.00,25, 109302
1048, 1692379.00, 9667973.00, 8493059.00,25, 109407
1049, 1692410.00, 9668058.00, 8493011.00,25, 109512
1050, 1692436.00, 9668064.00, 8493096.00,25, 109616
1051, 1692426.00, 9668045.00, 8493105.00,25, 109721
1052, 1692416.00, 9667980.00, 8493100.00,25, 109826
1053, 1692457.00, 9667745.00, 8493113.00,25, 109930
1054, 1692500.00, 9667761.00, 8493035.00,25, 110035
1055, 1692505.00, 9667695.00, 8493049.00,25, 110139
1056, 1692549.00, 9667529.00, 8493036.00,25, 110244
1057, 1692640.00, 9667480.00, 8493059.00,25, 110349
1058, 1692727.00, 9667478.00, 8493031.00,25, 110453
1059, 1692892.00, 9667412.00, 8493028.00,25, 110558
1060, 1693045.00, 9667353.00, 8493010.00,25, 110662
1061, 1693122.00, 9667310.00, 8492987.00,25, 110767
1062, 1693197.00, 9667364.00, 8493011.00,25, 110872
1063, 1693261.00, 9667439.00, 8493109.00,25, 110976
1064, 1693323.00, 9667420.00, 8493079.00,25, 111081
1065, 1693305.00, 9667395.00, 8493039.00,25, 111186
1066, 1693324.00, 9667423.00, 8493104.00,25, 111290
1067, 1693323.00, 9667387.00, 8493145.00,25, 111395
1068, 1693300.00, 9667276.00, 8493239.00,25, 111499
1069, 1693305.00, 9667235.00, 8493152.00,25, 111604
1070, 1693252.00, 9667120.00, 8493090.00,25, 111709
1071, 1693251.00, 9667027.00, 8492954.00,25, 111813
1072, 1693381.00, 9666992.00, 8492925.00,25, 111918
1073, 1693535.00, 9666887.00, 8493067.00,25, 112023
1074, 1693663.00, 9666858.00, 8493124.00,25, 112127
1075, 1693801.00, 9666848.00, 8493188.00,25, 112232
1076, 1693868.00, 9666782.00, 8493141.00,25, 112336
1077, 1693912.00, 9666727.00, 8493084.00,25, 112441
1078, 1694024.00, 9666726.00, 8493100.00,25, 112546
1079, 1694155.00, 9666725.00, 8493052.00,25, 112650
1080, 1694208.00, 9666609.00, 8493112.00,25, 112755
1081, 1694229.00, 9666511.00, 8493067.00,25, 112859
1082, 1694268.00, 9666581.00, 8493064.00,25, 112964
1083, 1694214.00, 9666591.00, 8493021.00,25, 113069
1084, 1694166.00, 9666581.00, 8493097.00,25, 113173
1085, 1694205.00, 9666597.00, 8493073.00,25, 113278
1086, 1694217.00, 9666522.00, 8493131.00,25, 113383
1087, 1694221.00, 9666386.00, 8493193.00,25, 113487
1088, 1694246.00, 9666324.00, 8493105.00,25, 113592
1089, 1694302.00, 9666385.00, 8493012.00,25, 113696
1090, 1694305.00, 9666385.00, 8492952.00,25, 113801
1091, 1694294.00, 9666323.00, 8493025.00,25, 113906
1092, 1694299.00, 9666349.00, 8493115.00,25, 114010
1093, 1694358.00, 9666258.00, 8493097.00,25, 114115
1094, 1694469.00, 9666190.00, 8493083.00,25, 114220
1095, 1694665.00, 9666137.00, 8493058.00,25, 114324
1096, 1694744.00, 9666081.00, 8492998.00,25, 114429
1097, 1694800.00, 9666106.00, 8492951.00,25, 114533
1098, 1694771.00, 9666134.00, 8492991.00,25, 114638
1099, 1694722.00, 9666076.00, 8492978.00,25, 114743
1100, 1694654.00, 9666143.00, 8493084.00,25, 114847
1101, 1694694.00, 9666019.00, 8492999.00,25, 114952
1102, 1694740.00, 9666004.00, 8493014.00,25, 115057
1103, 1694826.00, 9665944.00, 8493022.00,25, 115161
1104, 1694771.00, 9665883.00, 8492999.00,25, 115266
1105, 1694683.00, 9665909.00, 8493006.00,25, 115370
1106, 1694727.00, 9665874.00, 8493084.00,25, 115475
1107, 1694776.00, 9665835.00, 8493073.00,25, 115580
1108, 1694796.00, 9665891.00, 8493016.00,25, 115684
1109, 1694799.00, 9665829.00, 8493081.00,25, 115789
1110, 1694918.00, 9665792.00, 8493153.00,25, 115893
1111, 1695040.00, 9665745.00, 8493138.00,25, 115998
1112, 1695067.00, 9665706.00, 8493025.00,25, 116103
1113, 1695099.00, 9665701.00, 8493034.00,25, 116207
1114, 1695142.00, 9665722.00, 8493017.00,25, 116312
1115, 1695135.00, 9665781.00, 8493016.00,25, 116417
1116, 1695122.00, 9665757.00, 8493018.00,25, 116521
1117, 1695114.00, 9665662.00, 8493021.00,25, 116626
1118, 1695121.00, 9665679.00, 8492979.00,25, 116730
1119, 1695129.00, 9665659.00, 8492975.00,25, 116835
1120, 1695099.00, 9665575.00, 8493040.00,25, 116940
1121, 1695150.00, 9665572.00, 8492998.00,25, 117044
1122, 1695141.00, 9665556.00, 8493005.00,25, 117149
1123, 1695135.00, 9665497.00, 8493039.00,25, 117254
1124, 1695118.00, 9665513.00, 8492993.00,25, 117358
1125, 1695128.00, 9665486.00, 8492947.00,25, 117463
1126, 1695152.00, 9665493.00, 8493046.00,25, 117567
1127, 1695190.00, 9665509.00, 8492981.00,25, 117672
1128, 1695249.00, 9665502.00, 8492948.00,25, 117777
1129, 1695274.00, 9665488.00, 8493007.00,25, 117881
1130, 1695316.00, 9665454.00, 8493106.00,25, 117986
1131, 1695355.00, 9665449.00, 8493053.00,25, 118090
1132, 1695366.00, 9665416.00, 8492968.00,25, 118195
1133, 1695357.00, 9665393.00, 8493136.00,25, 118300
1134, 1695359.00, 9665416.00, 8493130.00,25, 118404
1135, 1695386.00, 9665368.00, 8492966.00,25, 118509
1136, 1695400.00, 9665367.00, 8492957.00,25, 118614
1137, 1695358.00, 9665332.00, 8493053.00,25, 118718
1138, 1695393.00, 9665283.00, 8493039.00,25, 118823
1139, 1695380.00, 9665321.00, 8493052.00,25, 118927
1140, 1695348.00, 9665320.00, 8493099.00,25, 119032
1141, 1695373.00, 9665364.00, 8493068.00,25, 119137
1142, 1695449.00, 9665325.00, 8493074.00,25, 119241
1143, 1695394.00, 9665302.00, 8492981.00,25, 119346
1144, 1695374.00, 9665261.00, 8492996.00,25, 119451
1145, 1695447.00, 9665289.00, 8493085.00,25, 119555
1146, 1695502.00, 9665309.00, 8493051.00,25, 119660
1147, 1695483.00, 9665307.00, 8492860.00,25, 119764
1148, 1695488.00, 9665329.00, 8492929.00,25, 119869
1149, 1695478.00, 9665194.00, 8493057.00,25, 119974
1150, 1695507.00, 9665176.00, 8493126.00,25, 120078
1151, 1695476.00, 9665187.00, 8493083.00,25, 120183
1152, 1695430.00, 9665157.00, 8493089.00,25, 120287
1153, 1695454.00, 9665108.00, 8493073.00,25, 120392
1154, 1695364.00, 9665169.00, 8493129.00,25, 120497
1155, 1695338.00, 9665235.00, 8493071.00,25, 120601
1156, 1695357.00, 9665276.00, 8493088.00,25, 120706
1157, 1695412.00, 9665298.00, 8493106.00,25, 120810
1158, 1695468.00, 9665357.00, 8493038.00,25, 120915
1159, 1695517.00, 9665393.00, 8492964.00,25, 121020
1160, 1695511.00, 9665353.00, 8493003.00,25, 121124
1161, 1695543.00, 9665362.00, 8493027.00,25, 121229
1162, 1695594.00, 9665388.00, 8493041.00,25, 121334
RECORDING Time: 11:23:43
BASELINE Time: 11:23:58
1, 1695643.00, 9662416.00, 8493145.00,25, 0
2, 1695484.00, 9662363.00, 8493099.00,25, 0
3, 1695395.00, 9662343.00, 8493090.00,25, 104
4, 1695365.00, 9662358.00, 8493004.00,25, 209
5, 1695375.00, 9662350.00, 8493067.00,25, 314
6, 1695365.00, 9662373.00, 8492980.00,25, 418
7, 1695379.00, 9662401.00, 8493066.00,25, 523
8, 1695344.00, 9662351.00, 8493111.00,25, 627
9, 1695285.00, 9662305.00, 8493039.00,25, 732
10, 1695305.00, 9662247.00, 8493060.00,25, 837
11, 1695241.00, 9662249.00, 8492981.00,25, 941
12, 1695182.00, 9662182.00, 8492985.00,25, 1046
13, 1695105.00, 9662111.00, 8492973.00,25, 1151
14, 1694958.00, 9662076.00, 8493042.00,25, 1255
15, 1694927.00, 9662093.00, 8493047.00,25, 1360
16, 1694909.00, 9661995.00, 8493088.00,25, 1464
17, 1694860.00, 9661910.00, 8493101.00,25, 1569
18, 1694774.00, 9661894.00, 8493055.00,25, 1674
19, 1694751.00, 9661872.00, 8493012.00,25, 1778
20, 1694719.00, 9661818.00, 8493086.00,25, 1883
21, 1694719.00, 9661841.00, 8493054.00,25, 1988
22, 1694759.00, 9661866.00, 8492998.00,25, 2092
23, 1694820.00, 9661823.00, 8493022.00,25, 2197
24, 1694775.00, 9661801.00, 8493058.00,25, 2301
25, 1694726.00, 9661767.00, 8493144.00,25, 2406
26, 1694711.00, 9661732.00, 8493092.00,25, 2511
27, 1694742.00, 9661713.00, 8493041.00,25, 2615
28, 1694755.00, 9661730.00, 8493036.00,25, 2720
29, 1694716.00, 9661720.00, 8493050.00,25, 2825
30, 1694683.00, 9661705.00, 8493056.00,25, 2929
31, 1694690.00, 9661655.00, 8493039.00,25, 3034
32, 1694671.00, 9661667.00, 8493069.00,25, 3138
33, 1694625.00, 9661620.00, 8493089.00,25, 3243
34, 1694617.00, 9661635.00, 8493158.00,25, 3348
35, 1694658.00, 9661584.00, 8493101.00,25, 3452
36, 1694629.00, 9661554.00, 8493080.00,25, 3557
37, 1694650.00, 9661533.00, 8493093.00,25, 3661
38, 1694692.00, 9661479.00, 8493064.00,25, 3766
39, 1694637.00, 9661437.00, 8493106.00,25, 3871
40, 1694621.00, 9661482.00, 8493030.00,25, 3975
41, 1694704.00, 9661465.00, 8492966.00,25, 4080
42, 1694738.00, 9661446.00, 8493055.00,25, 4185
43, 1694705.00, 9661374.00, 8493110.00,25, 4289
44, 1694726.00, 9661374.00, 8493230.00,25, 4394
45, 1694749.00, 9661367.00, 8493114.00,25, 4498
46, 1694700.00, 9661370.00, 8493066.00,25, 4603
47, 1694731.00, 9661331.00, 8493099.00,25, 4708
48, 1694702.00, 9661303.00, 8493068.00,25, 4812
49, 1694692.00, 9661287.00, 8493122.00,25, 4917
50, 1694660.00, 9661300.00, 8493080.00,25, 5022
51, 1694540.00, 9661283.00, 8493007.00,25, 5126
52, 1694535.00, 9661324.00, 8493015.00,25, 5231
53, 1694578.00, 9661348.00, 8493027.00,25, 5335
54, 1694578.00, 9661314.00, 8493040.00,25, 5440
55, 1694551.00, 9661325.00, 8492953.00,25, 5545
56, 1694582.00, 9661291.00, 8493015.00,25, 5649
57, 1694626.00, 9661253.00, 8493057.00,25, 5754
58, 1694622.00, 9661311.00, 8493086.00,25, 5858
59, 1694574.00, 9661253.00, 8493057.00,25, 5963
60, 1694518.00, 9661194.00, 8493127.00,25, 6068
61, 1694497.00, 9661211.00, 8493153.00,25, 6172
62, 1694446.00, 9661342.00, 8493049.00,25, 6277
63, 1694415.00, 9661495.00, 8492947.00,25, 6381
64, 1694416.00, 9661633.00, 8492931.00,25, 6486
65, 1694342.00, 9661713.00, 8492953.00,25, 6591
66, 1694310.00, 9661702.00, 8493002.00,25, 6695
67, 1694309.00, 9661615.00, 8493142.00,25, 6800
68, 1694281.00, 9661655.00, 8493122.00,25, 6904
69, 1694277.00, 9661553.00, 8493033.00,25, 7009
70, 1694460.00, 9661577.00, 8493097.00,25, 7114
71, 1694898.00, 9661102.00, 8493044.00,25, 7218
72, 1694998.00, 9660933.00, 8493105.00,25, 7323
73, 1695015.00, 9660760.00, 8493088.00,25, 7428
74, 1695032.00, 9660757.00, 8492976.00,25, 7532
75, 1695069.00, 9660769.00, 8493058.00,25, 7637
76, 1695059.00, 9660713.00, 8493089.00,25, 7741
77, 1695080.00, 9660747.00, 8493048.00,25, 7846
78, 1695102.00, 9660810.00, 8493072.00,25, 7951
79, 1695037.00, 9660732.00, 8493133.00,25, 8055
80, 1695077.00, 9660635.00, 8493039.00,25, 8160
81, 1695034.00, 9660664.00, 8493066.00,25, 8264
82, 1695002.00, 9660741.00, 8493151.00,25, 8369
83, 1695015.00, 9660633.00, 8493035.00,25, 8474
84, 1695025.00, 9660588.00, 8493038.00,25, 8578
85, 1695020.00, 9660678.00, 8492992.00,25, 8683
86, 1695030.00, 9660638.00, 8492917.00,25, 8788
87, 1695064.00, 9660637.00, 8492993.00,25, 8892
88, 1695015.00, 9660603.00, 8493049.00,25, 8997
89, 1694982.00, 9660631.00, 8493020.00,25, 9101
90, 1694972.00, 9660612.00, 8493025.00,25, 9206
91, 1695008.00, 9660534.00, 8493041.00,25, 9311
92, 1695013.00, 9660522.00, 8493122.00,25, 9415
93, 1695028.00, 9660563.00, 8493206.00,25, 9520
94, 1695025.00, 9660485.00, 8493193.00,25, 9625
95, 1695391.00, 9660627.00, 8493124.00,25, 9729
96, 1697014.00, 9658949.00, 8493032.00,25, 9834
97, 1698102.00, 9658124.00, 8493048.00,25, 9938
98, 1698245.00, 9658107.00, 8493153.00,25, 10043
99, 1698159.00, 9658267.00, 8493130.00,25, 10148
100, 1698125.00, 9658144.00, 8493079.00,25, 10252
101, 1698114.00, 9658187.00, 8493071.00,25, 10357
102, 1698139.00, 9658233.00, 8493064.00,25, 10461
103, 1698117.00, 9658189.00, 8493102.00,25, 10566
104, 1698108.00, 9658283.00, 8493062.00,25, 10671
105, 1698065.00, 9658243.00, 8493096.00,25, 10775
106, 1698050.00, 9658291.00, 8493071.00,25, 10880
107, 1698088.00, 9658356.00, 8493145.00,25, 10985
108, 1698142.00, 9658440.00, 8493148.00,25, 11089
109, 1698120.00, 9658459.00, 8493031.00,25, 11194
110, 1698155.00, 9658490.00, 8493072.00,25, 11298
111, 1698099.00, 9658469.00, 8493113.00,25, 11403
112, 1698108.00, 9658538.00, 8493035.00,25, 11508
113, 1698116.00, 9658625.00, 8493111.00,25, 11612
114, 1698112.00, 9658627.00, 8493051.00,25, 11717
115, 1698014.00, 9658623.00, 8492980.00,25, 11822
116, 1697859.00, 9658472.00, 8492949.00,25, 11926
117, 1697842.00, 9658524.00, 8493065.00,25, 12031
118, 1697931.00, 9658545.00, 8493150.00,25, 12135
119, 1697866.00, 9658652.00, 8493004.00,25, 12240
120, 1697801.00, 9658534.00, 8492988.00,25, 12345
121, 1697765.00, 9658640.00, 8493007.00,25, 12449
122, 1697706.00, 9658558.00, 8493006.00,25, 12554
123, 1697675.00, 9658557.00, 8493135.00,25, 12658
BASELINE Time: 11:24:11
